File: randomized_C_27000/xps_glassy_carbon_brunetti_2012_subtracted_background.dat
   282.15     0.000000
   282.3     0.000000
   282.45     0.000000
   282.6     0.000000
   282.75     0.000000
   282.9     0.006049
   283.05     0.018140
   283.2     0.030222
   283.35     0.054431
   283.5     0.083505
   283.65     0.147066
   283.8     0.228606
   283.95     0.338647
   284.1     0.480331
   284.25     0.648826
   284.4     0.759228
   284.55     0.807969
   284.7     0.752465
   284.85     0.654445
   285     0.542532
   285.15     0.419324
   285.3     0.339042
   285.45     0.297942
   285.6     0.251505
   285.75     0.228022
   285.9     0.224813
   286.05     0.222323
   286.2     0.216272
   286.35     0.210118
   286.5     0.192032
   286.65     0.173452
   286.8     0.149659
   286.95     0.128936
   287.1     0.110405
   287.25     0.101823
   287.4     0.096978
   287.55     0.092256
   287.7     0.085671
   287.85     0.084560
   288     0.080157
   288.15     0.073877
   288.3     0.071083
   288.45     0.071083
   288.6     0.071083
   288.75     0.071083
   288.9     0.071083
   289.05     0.071075
   289.2     0.065032
   289.35     0.054599
   289.5     0.045540
   289.65     0.035693
   289.8     0.024343
   289.95     0.018740
   290.1     0.013085