File: randomized_C_27000/xps_carbon_black_interpolated.dat
   280.036     0.006775
   280.101     0.004448
   280.165     0.002122
   280.23     0.003276
   280.294     0.005233
   280.359     0.005292
   280.423     0.003268
   280.488     0.002064
   280.553     0.003733
   280.617     0.005361
   280.682     0.006292
   280.746     0.007222
   280.811     0.006873
   280.875     0.005976
   280.94     0.005188
   281.004     0.004596
   281.069     0.004004
   281.134     0.002930
   281.198     0.001840
   281.263     0.002358
   281.327     0.003117
   281.392     0.005509
   281.456     0.009043
   281.521     0.012412
   281.586     0.013423
   281.65     0.014433
   281.715     0.014566
   281.779     0.014694
   281.844     0.015740
   281.908     0.017351
   281.973     0.018962
   282.037     0.021530
   282.102     0.025906
   282.167     0.030283
   282.231     0.033798
   282.296     0.037294
   282.36     0.041918
   282.425     0.046758
   282.489     0.051837
   282.554     0.057020
   282.619     0.066738
   282.683     0.077218
   282.748     0.078882
   282.812     0.099107
   282.877     0.115750
   282.941     0.133274
   283.006     0.157810
   283.071     0.178444
   283.135     0.201464
   283.2     0.226997
   283.264     0.260981
   283.329     0.296742
   283.393     0.335007
   283.458     0.374795
   283.522     0.416473
   283.587     0.460228
   283.652     0.502366
   283.716     0.544360
   283.781     0.590757
   283.845     0.631519
   283.91     0.667558
   283.974     0.709110
   284.039     0.745667
   284.104     0.775657
   284.168     0.800554
   284.233     0.821757
   284.297     0.836268
   284.362     0.845423
   284.426     0.851692
   284.491     0.852051
   284.555     0.847356
   284.62     0.841005
   284.685     0.827764
   284.749     0.809805
   284.814     0.788691
   284.878     0.771193
   284.943     0.751600
   285.007     0.729287
   285.072     0.703455
   285.137     0.677893
   285.201     0.653566
   285.266     0.628370
   285.33     0.604810
   285.395     0.585317
   285.459     0.564900
   285.524     0.542804
   285.588     0.517414
   285.653     0.497814
   285.718     0.480319
   285.782     0.463267
   285.847     0.443334
   285.911     0.420803
   285.976     0.401455
   286.04     0.383019
   286.105     0.365269
   286.17     0.351632
   286.234     0.338255
   286.299     0.325506
   286.363     0.313312
   286.428     0.302795
   286.492     0.288904
   286.557     0.277889
   286.621     0.269760
   286.686     0.261471
   286.751     0.252715
   286.815     0.243976
   286.88     0.235256
   286.944     0.226559
   287.009     0.218192
   287.073     0.209687
   287.138     0.198960
   287.203     0.189783
   287.267     0.182645
   287.332     0.171764
   287.396     0.163306
   287.461     0.157115
   287.525     0.150146
   287.59     0.143097
   287.654     0.136543
   287.719     0.130420
   287.784     0.124816
   287.848     0.120610
   287.913     0.114103
   287.977     0.105623
   288.042     0.100517
   288.106     0.095417
   288.171     0.090665
   288.236     0.085913
   288.3     0.083614
   288.365     0.082050
   288.429     0.081935
   288.494     0.082124
   288.558     0.081782
   288.623     0.081094
   288.687     0.080236
   288.752     0.077355
   288.817     0.074475
   288.881     0.072448
   288.946     0.071334
   289.01     0.070927
   289.075     0.071732
   289.139     0.072536
   289.204     0.069776
   289.269     0.066211
   289.333     0.064293
   289.398     0.064322
   289.462     0.063349
   289.527     0.060300
   289.591     0.056476
   289.656     0.051487
   289.72     0.046635
   289.785     0.045016
   289.85     0.043397
   289.914     0.040993
   289.979     0.038029
   290.043     0.035102
   290.108     0.032941
   290.172     0.030779
   290.237     0.027758
   290.302     0.024686
   290.366     0.022162
   290.431     0.019811
   290.495     0.017828
   290.56     0.015884
   290.624     0.014119
   290.689     0.013018
   290.753     0.011918
   290.818     0.011973
   290.883     0.012438
   290.947     0.011034
   291.012     0.006142
   291.076     0.003437
   291.141     0.005277
   291.205     0.006891
   291.27     0.004490
   291.335     0.002093
   291.399     0.004531
   291.464     0.006970
   291.528     0.005708
   291.593     0.003649
   291.657     0.001590
   291.722     0.001941
   291.786     0.002624
   291.851     0.003895
   291.916     0.005166
   291.98     0.006108
   292.045     0.007001
   292.109     0.005488
   292.174     0.002538
   292.238     0.000332
   292.303     0.000166
   292.368     0.000000
   292.432     0.000260
   292.497     0.000993
   292.561     0.002121
   292.626     0.004762
   292.69     0.006604
   292.755     0.004929
   292.819     0.003255
   292.884     0.003295
   292.949     0.003705